File: Röntgen/KEN008_XRD_65deg_phi180.xy
-89.800 3.0
-89.200 5.0
-88.600 3.0
-88.000 4.0
-87.400 5.0
-86.800 4.0
-86.200 5.0
-85.600 1.0
-85.000 1.0
-84.400 4.0
-83.800 3.0
-83.200 4.0
-82.600 6.0
-82.000 4.0
-81.400 4.0
-80.800 2.0
-80.200 3.0
-79.600 2.0
-79.000 0.0
-78.400 3.0
-77.800 1.0
-77.200 4.0
-76.600 5.0
-76.000 5.0
-75.400 4.0
-74.800 5.0
-74.200 3.0
-73.600 3.0
-73.000 1.0
-72.400 1.0
-71.800 1.0
-71.200 1.0
-70.600 4.0
-70.000 4.0
-69.400 3.0
-68.800 7.0
-68.200 2.0
-67.600 4.0
-67.000 4.0
-66.400 2.0
-65.800 1.0
-65.200 2.0
-64.600 3.0
-64.000 4.0
-63.400 3.0
-62.800 1.0
-62.200 2.0
-61.600 2.0
-61.000 4.0
-60.400 2.0
-59.800 5.0
-59.200 2.0
-58.600 4.0
-58.000 4.0
-57.400 3.0
-56.800 0.0
-56.200 2.0
-55.600 1.0
-55.000 3.0
-54.400 4.0
-53.800 2.0
-53.200 0.0
-52.600 4.0
-52.000 3.0
-51.400 2.0
-50.800 3.0
-50.200 1.0
-49.600 3.0
-49.000 3.0
-48.400 3.0
-47.800 1.0
-47.200 4.0
-46.600 3.0
-46.000 2.0
-45.400 2.0
-44.800 2.0
-44.200 4.0
-43.600 6.0
-43.000 2.0
-42.400 23.0
-41.800 7.0
-41.200 3.0
-40.600 2.0
-40.000 4.0
-39.400 6.0
-38.800 5.0
-38.200 0.0
-37.600 2.0
-37.000 2.0
-36.400 4.0
-35.800 5.0
-35.200 7.0
-34.600 2.0
-34.000 4.0
-33.400 1.0
-32.800 2.0
-32.200 1.0
-31.600 2.0
-31.000 3.0
-30.400 4.0
-29.800 2.0
-29.200 3.0
-28.600 0.0
-28.000 1.0
-27.400 5.0
-26.800 1.0
-26.200 4.0
-25.600 2.0
-25.000 0.0
-24.400 3.0
-23.800 5.0
-23.200 2.0
-22.600 2.0
-22.000 2.0
-21.400 1.0
-20.800 4.0
-20.200 6.0
-19.600 4.0
-19.000 5.0
-18.400 1.0
-17.800 2.0
-17.200 3.0
-16.600 2.0
-16.000 4.0
-15.400 2.0
-14.800 4.0
-14.200 0.0
-13.600 3.0
-13.000 2.0
-12.400 4.0
-11.800 1.0
-11.200 2.0
-10.600 4.0
-10.000 6.0
-9.400 0.0
-8.800 3.0
-8.200 4.0
-7.600 6.0
-7.000 2.0
-6.400 2.0
-5.800 1.0
-5.200 2.0
-4.600 4.0
-4.000 4.0
-3.400 2.0
-2.800 5.0
-2.200 9.0
-1.600 13.0
-1.000 8.0
-0.400 13.0
0.200 8.0
0.800 14.0
1.400 15.0
2.000 12.0
2.600 15.0
3.200 19.0
3.800 12.0
4.400 8.0
5.000 15.0
5.600 8.0
6.200 8.0
6.800 10.0
7.400 6.0
8.000 4.0
8.600 10.0
9.200 5.0
9.800 1.0
10.400 6.0
11.000 4.0
11.600 2.0
12.200 2.0
12.800 4.0
13.400 2.0
14.000 2.0
14.600 1.0
15.200 1.0
15.800 3.0
16.400 3.0
17.000 2.0
17.600 2.0
18.200 4.0
18.800 2.0
19.400 2.0
20.000 2.0
20.600 0.0
21.200 3.0
21.800 3.0
22.400 0.0
23.000 1.0
23.600 1.0
24.200 1.0
24.800 1.0
25.400 1.0
26.000 2.0
26.600 2.0
27.200 1.0
27.800 3.0
28.400 1.0
29.000 1.0
29.600 1.0
30.200 1.0
30.800 4.0
31.400 2.0
32.000 3.0
32.600 1.0
33.200 3.0
33.800 5.0
34.400 3.0
35.000 3.0
35.600 1.0
36.200 3.0
36.800 3.0
37.400 4.0
38.000 2.0
38.600 2.0
39.200 1.0
39.800 4.0
40.400 2.0
41.000 1.0
41.600 2.0
42.200 4.0
42.800 4.0
43.400 2.0
44.000 5.0
44.600 2.0
45.200 5.0
45.800 5.0
46.400 3.0
47.000 4.0
47.600 26.0
48.200 10.0
48.800 2.0
49.400 2.0
50.000 1.0
50.600 3.0
51.200 5.0
51.800 4.0
52.400 3.0
53.000 0.0
53.600 6.0
54.200 4.0
54.800 3.0
55.400 2.0
56.000 1.0
56.600 1.0
57.200 2.0
57.800 7.0
58.400 0.0
59.000 2.0
59.600 1.0
60.200 1.0
60.800 2.0
61.400 2.0
62.000 3.0
62.600 1.0
63.200 1.0
63.800 3.0
64.400 3.0
65.000 4.0
65.600 3.0
66.200 4.0
66.800 2.0
67.400 4.0
68.000 1.0
68.600 5.0
69.200 5.0
69.800 2.0
70.400 4.0
71.000 2.0
71.600 2.0
72.200 4.0
72.800 4.0
73.400 8.0
74.000 2.0
74.600 9.0
75.200 4.0
75.800 1.0
76.400 4.0
77.000 2.0
77.600 5.0
78.200 2.0
78.800 6.0
79.400 1.0
80.000 1.0
80.600 1.0
81.200 1.0
81.800 2.0
82.400 2.0
83.000 1.0
83.600 5.0
84.200 3.0
84.800 6.0
85.400 1.0
86.000 3.0
86.600 5.0
87.200 5.0
87.800 3.0
88.400 5.0
89.000 1.0
89.600 1.0
89.800 2.0