File: Röntgen/KEN009_XRD_40_85deg.xy
40.02000 45.0
40.18000 53.0
40.34000 53.0
40.50000 46.0
40.66000 44.0
40.82000 40.0
40.98000 32.0
41.14000 31.0
41.30000 44.0
41.46000 37.0
41.62000 46.0
41.78000 41.0
41.94000 44.0
42.10000 43.0
42.26000 39.0
42.42000 36.0
42.58000 48.0
42.74000 38.0
42.90000 39.0
43.06000 34.0
43.22000 35.0
43.38000 34.0
43.54000 37.0
43.70000 32.0
43.86000 50.0
44.02000 30.0
44.18000 53.0
44.34000 56.0
44.50000 96.0
44.66000 146.0
44.82000 133.0
44.98000 85.0
45.14000 50.0
45.30000 40.0
45.46000 47.0
45.62000 37.0
45.78000 40.0
45.94000 29.0
46.10000 37.0
46.26000 37.0
46.42000 51.0
46.58000 27.0
46.74000 28.0
46.90000 43.0
47.06000 35.0
47.22000 39.0
47.38000 25.0
47.54000 25.0
47.70000 32.0
47.86000 28.0
48.02000 38.0
48.18000 44.0
48.34000 29.0
48.50000 31.0
48.66000 39.0
48.82000 35.0
48.98000 29.0
49.14000 24.0
49.30000 47.0
49.46000 32.0
49.62000 37.0
49.78000 25.0
49.94000 33.0
50.10000 42.0
50.26000 25.0
50.42000 24.0
50.58000 41.0
50.74000 28.0
50.90000 37.0
51.06000 30.0
51.22000 42.0
51.38000 45.0
51.54000 32.0
51.70000 23.0
51.86000 34.0
52.02000 42.0
52.18000 42.0
52.34000 31.0
52.50000 26.0
52.66000 36.0
52.82000 43.0
52.98000 41.0
53.14000 43.0
53.30000 26.0
53.46000 30.0
53.62000 31.0
53.78000 40.0
53.94000 34.0
54.10000 28.0
54.26000 41.0
54.42000 34.0
54.58000 42.0
54.74000 49.0
54.90000 38.0
55.06000 83.0
55.22000 41.0
55.38000 47.0
55.54000 44.0
55.70000 34.0
55.86000 69.0
56.02000 37.0
56.18000 45.0
56.34000 86.0
56.50000 57.0
56.66000 99.0
56.82000 123.0
56.98000 42.0
57.14000 54.0
57.30000 43.0
57.46000 36.0
57.62000 65.0
57.78000 62.0
57.94000 46.0
58.10000 39.0
58.26000 42.0
58.42000 41.0
58.58000 48.0
58.74000 35.0
58.90000 32.0
59.06000 40.0
59.22000 58.0
59.38000 52.0
59.54000 42.0
59.70000 41.0
59.86000 43.0
60.02000 53.0
60.18000 50.0
60.34000 48.0
60.50000 49.0
60.66000 52.0
60.82000 47.0
60.98000 57.0
61.14000 79.0
61.30000 85.0
61.46000 92.0
61.62000 1050.0
61.78000 393.0
61.94000 938.0
62.10000 173.0
62.26000 119.0
62.42000 100.0
62.58000 101.0
62.74000 98.0
62.90000 95.0
63.06000 111.0
63.22000 121.0
63.38000 115.0
63.54000 107.0
63.70000 106.0
63.86000 122.0
64.02000 98.0
64.18000 134.0
64.34000 117.0
64.50000 128.0
64.66000 120.0
64.82000 144.0
64.98000 157.0
65.14000 173.0
65.30000 178.0
65.46000 213.0
65.62000 327.0
65.78000 1525.0
65.94000 3186.0
66.10000 809.0
66.26000 449.0
66.42000 1370.0
66.58000 545.0
66.74000 439.0
66.90000 429.0
67.06000 670.0
67.22000 659.0
67.38000 772.0
67.54000 965.0
67.70000 1127.0
67.86000 1438.0
68.02000 1624.0
68.18000 2103.0
68.34000 2732.0
68.50000 3932.0
68.66000 7193.0
68.82000 21683.0
68.98000 54422.0
69.14000 1909465.0
69.30000 1081502.0
69.46000 37441.0
69.62000 12892.0
69.78000 7872.0
69.94000 5587.0
70.10000 4343.0
70.26000 3810.0
70.42000 2851.0
70.58000 2398.0
70.74000 2066.0
70.90000 1702.0
71.06000 1408.0
71.22000 1119.0
71.38000 949.0
71.54000 774.0
71.70000 654.0
71.86000 566.0
72.02000 464.0
72.18000 398.0
72.34000 378.0
72.50000 318.0
72.66000 327.0
72.82000 249.0
72.98000 203.0
73.14000 195.0
73.30000 170.0
73.46000 146.0
73.62000 151.0
73.78000 117.0
73.94000 117.0
74.10000 105.0
74.26000 106.0
74.42000 96.0
74.58000 96.0
74.74000 99.0
74.90000 85.0
75.06000 140.0
75.22000 169.0
75.38000 74.0
75.54000 77.0
75.70000 74.0
75.86000 85.0
76.02000 77.0
76.18000 82.0
76.34000 84.0
76.50000 59.0
76.66000 43.0
76.82000 53.0
76.98000 40.0
77.14000 40.0
77.30000 46.0
77.46000 43.0
77.62000 53.0
77.78000 44.0
77.94000 55.0
78.10000 48.0
78.26000 40.0
78.42000 50.0
78.58000 36.0
78.74000 39.0
78.90000 43.0
79.06000 34.0
79.22000 30.0
79.38000 35.0
79.54000 35.0
79.70000 40.0
79.86000 24.0
80.02000 30.0
80.18000 30.0
80.34000 41.0
80.50000 23.0
80.66000 33.0
80.82000 43.0
80.98000 29.0
81.14000 33.0
81.30000 25.0
81.46000 32.0
81.62000 29.0
81.78000 27.0
81.94000 28.0
82.10000 25.0
82.26000 38.0
82.42000 32.0
82.58000 43.0
82.74000 24.0
82.90000 23.0
83.06000 19.0
83.22000 34.0
83.38000 30.0
83.54000 27.0
83.70000 23.0
83.86000 13.0
84.02000 25.0
84.18000 25.0
84.34000 25.0
84.50000 29.0
84.66000 31.0
84.82000 35.0
84.98000 20.0