File: Röntgen/KEN008_XRD_40_85deg.xy
40.02000 68.0
40.18000 101.0
40.34000 127.0
40.50000 2731.0
40.66000 137.0
40.82000 102.0
40.98000 113.0
41.14000 115.0
41.30000 106.0
41.46000 114.0
41.62000 108.0
41.78000 142.0
41.94000 143.0
42.10000 144.0
42.26000 134.0
42.42000 180.0
42.58000 171.0
42.74000 260.0
42.90000 400.0
43.06000 6164.0
43.22000 521.0
43.38000 1275.0
43.54000 544.0
43.70000 543.0
43.86000 846.0
44.02000 1135.0
44.18000 1553.0
44.34000 2228.0
44.50000 3573.0
44.66000 6160.0
44.82000 25458.0
44.98000 675180.0
45.14000 985069.0
45.30000 17040.0
45.46000 7030.0
45.62000 4998.0
45.78000 3635.0
45.94000 2554.0
46.10000 1831.0
46.26000 1332.0
46.42000 959.0
46.58000 716.0
46.74000 556.0
46.90000 468.0
47.06000 402.0
47.22000 308.0
47.38000 293.0
47.54000 218.0
47.70000 240.0
47.86000 201.0
48.02000 179.0
48.18000 168.0
48.34000 166.0
48.50000 186.0
48.66000 200.0
48.82000 156.0
48.98000 135.0
49.14000 172.0
49.30000 167.0
49.46000 119.0
49.62000 127.0
49.78000 108.0
49.94000 111.0
50.10000 92.0
50.26000 103.0
50.42000 96.0
50.58000 82.0
50.74000 73.0
50.90000 93.0
51.06000 90.0
51.22000 73.0
51.38000 92.0
51.54000 82.0
51.70000 64.0
51.86000 73.0
52.02000 79.0
52.18000 72.0
52.34000 81.0
52.50000 64.0
52.66000 53.0
52.82000 58.0
52.98000 64.0
53.14000 65.0
53.30000 56.0
53.46000 61.0
53.62000 50.0
53.78000 59.0
53.94000 37.0
54.10000 50.0
54.26000 49.0
54.42000 50.0
54.58000 53.0
54.74000 45.0
54.90000 36.0
55.06000 58.0
55.22000 45.0
55.38000 48.0
55.54000 38.0
55.70000 49.0
55.86000 45.0
56.02000 47.0
56.18000 42.0
56.34000 34.0
56.50000 40.0
56.66000 46.0
56.82000 49.0
56.98000 38.0
57.14000 44.0
57.30000 42.0
57.46000 50.0
57.62000 52.0
57.78000 68.0
57.94000 121.0
58.10000 127.0
58.26000 75.0
58.42000 44.0
58.58000 56.0
58.74000 59.0
58.90000 45.0
59.06000 48.0
59.22000 56.0
59.38000 67.0
59.54000 50.0
59.70000 41.0
59.86000 55.0
60.02000 53.0
60.18000 52.0
60.34000 56.0
60.50000 53.0
60.66000 51.0
60.82000 58.0
60.98000 61.0
61.14000 70.0
61.30000 56.0
61.46000 82.0
61.62000 85.0
61.78000 192.0
61.94000 339.0
62.10000 186.0
62.26000 121.0
62.42000 156.0
62.58000 138.0
62.74000 123.0
62.90000 141.0
63.06000 148.0
63.22000 176.0
63.38000 170.0
63.54000 253.0
63.70000 264.0
63.86000 324.0
64.02000 461.0
64.18000 683.0
64.34000 1217.0
64.50000 2924.0
64.66000 9293.0
64.82000 48101.0
64.98000 62382.0
65.14000 34976.0
65.30000 5503.0
65.46000 1961.0
65.62000 1105.0
65.78000 797.0
65.94000 582.0
66.10000 499.0
66.26000 410.0
66.42000 306.0
66.58000 294.0
66.74000 256.0
66.90000 217.0
67.06000 207.0
67.22000 168.0
67.38000 166.0
67.54000 129.0
67.70000 100.0
67.86000 69.0
68.02000 76.0
68.18000 74.0
68.34000 63.0
68.50000 57.0
68.66000 59.0
68.82000 57.0
68.98000 44.0
69.14000 47.0
69.30000 52.0
69.46000 44.0
69.62000 42.0
69.78000 55.0
69.94000 1018.0
70.10000 126.0
70.26000 64.0
70.42000 60.0
70.58000 48.0
70.74000 35.0
70.90000 50.0
71.06000 38.0
71.22000 41.0
71.38000 39.0
71.54000 40.0
71.70000 26.0
71.86000 34.0
72.02000 34.0
72.18000 32.0
72.34000 29.0
72.50000 25.0
72.66000 30.0
72.82000 40.0
72.98000 35.0
73.14000 50.0
73.30000 36.0
73.46000 30.0
73.62000 28.0
73.78000 24.0
73.94000 34.0
74.10000 46.0
74.26000 29.0
74.42000 27.0
74.58000 28.0
74.74000 32.0
74.90000 26.0
75.06000 35.0
75.22000 39.0
75.38000 34.0
75.54000 29.0
75.70000 29.0
75.86000 26.0
76.02000 33.0
76.18000 25.0
76.34000 20.0
76.50000 28.0
76.66000 28.0
76.82000 32.0
76.98000 31.0
77.14000 27.0
77.30000 27.0
77.46000 27.0
77.62000 36.0
77.78000 28.0
77.94000 31.0
78.10000 27.0
78.26000 41.0
78.42000 25.0
78.58000 42.0
78.74000 34.0
78.90000 38.0
79.06000 26.0
79.22000 39.0
79.38000 34.0
79.54000 21.0
79.70000 23.0
79.86000 29.0
80.02000 24.0
80.18000 28.0
80.34000 40.0
80.50000 29.0
80.66000 30.0
80.82000 21.0
80.98000 31.0
81.14000 23.0
81.30000 32.0
81.46000 32.0
81.62000 28.0
81.78000 24.0
81.94000 29.0
82.10000 30.0
82.26000 25.0
82.42000 31.0
82.58000 25.0
82.74000 31.0
82.90000 21.0
83.06000 25.0
83.22000 17.0
83.38000 26.0
83.54000 40.0
83.70000 34.0
83.86000 29.0
84.02000 32.0
84.18000 22.0
84.34000 23.0
84.50000 26.0
84.66000 35.0
84.82000 39.0
84.98000 23.0